File: data/XPS/casaXPSspectra_Nb=95A/ref_Si2p_Si-Si.dat
1376.97 1.69
1377.07 1.723
1377.17 1.758
1377.27 1.794
1377.37 1.83
1377.47 1.869
1377.57 1.908
1377.67 1.949
1377.77 1.99
1377.87 2.033
1377.97 2.078
1378.07 2.124
1378.17 2.172
1378.27 2.22
1378.37 2.272
1378.47 2.325
1378.57 2.379
1378.67 2.434
1378.77 2.494
1378.87 2.555
1378.97 2.618
1379.07 2.682
1379.17 2.75
1379.27 2.822
1379.37 2.894
1379.47 2.969
1379.57 3.049
1379.67 3.133
1379.77 3.217
1379.87 3.306
1379.97 3.4
1380.07 3.497
1380.17 3.597
1380.27 3.703
1380.37 3.813
1380.47 3.931
1380.57 4.051
1380.67 4.175
1380.77 4.308
1380.87 4.449
1380.97 4.595
1381.07 4.745
1381.17 4.907
1381.27 5.081
1381.37 5.257
1381.47 5.443
1381.57 5.642
1381.67 5.857
1381.77 6.076
1381.87 6.307
1381.97 6.556
1382.07 6.825
1382.17 7.103
1382.27 7.395
1382.37 7.713
1382.47 8.059
1382.57 8.418
1382.67 8.798
1382.77 9.212
1382.87 9.666
1382.97 10.139
1383.07 10.644
1383.17 11.198
1383.27 11.816
1383.37 12.461
1383.47 13.153
1383.57 13.917
1383.67 14.788
1383.77 15.702
1383.87 16.69
1383.97 17.787
1384.07 19.078
1384.17 20.44
1384.27 21.929
1384.37 23.59
1384.47 25.638
1384.57 27.82
1384.67 30.231
1384.77 32.943
1384.87 36.053
1384.97 39.585
1385.07 43.993
1385.17 49.522
1385.27 55.775
1385.37 63.016
1385.47 72.097
1385.57 84.21
1385.67 100.162
1385.77 121.796
1385.87 151.88
1385.97 194.294
1386.07 253.841
1386.17 335.36
1386.27 441.97
1386.37 572.834
1386.47 721.672
1386.57 877.509
1386.67 1028.322
1386.77 1166.077
1386.87 1289.713
1386.97 1402.768
1387.07 1506.023
1387.17 1589.871
1387.27 1632.907
1387.37 1609.691
1387.47 1504.186
1387.57 1320.392
1387.67 1083.301
1387.77 829.777
1387.87 595.021
1387.97 402.196
1388.07 259.23
1388.17 162.008
1388.27 100.306
1388.37 62.995
1388.47 40.96
1388.57 27.906
1388.67 19.952
1388.77 14.895
1388.87 11.571
1388.97 9.226
1389.07 7.482
1389.17 6.137
1389.27 5.15
1389.37 4.372
1389.47 3.816
1389.57 3.353
1389.67 2.925
1389.77 2.504
1389.87 2.191
1389.97 1.962
1390.07 1.752
1390.17 1.543
1390.27 1.382
1390.37 1.255
1390.47 1.139
1390.57 1.023
1390.67 0.931
1390.77 0.856
1390.87 0.785
1390.97 0.715
1391.07 0.658
1391.17 0.61
1391.27 0.565
1391.37 0.52
1391.47 0.483
1391.57 0.451
1391.67 0.42
1391.77 0.391
1391.87 0.366
1391.97 0.343
1392.07 0.322
1392.17 0.301
1392.27 0.284
1392.37 0.267
1392.47 0.252
1392.57 0.237
1392.67 0.224
1392.77 0.213
1392.87 0.201
1392.97 0.191