File: data/XPS/casaXPSspectra_Nb=95A/ref_Nb3d_Nb-Si.dat
1269.97 25.51
1270.07 25.91
1270.17 26.32
1270.27 26.76
1270.37 27.23
1270.47 27.73
1270.57 28.23
1270.67 28.74
1270.77 29.24
1270.87 29.75
1270.97 30.26
1271.07 30.77
1271.17 31.31
1271.27 31.87
1271.37 32.5
1271.47 33.16
1271.57 33.83
1271.67 34.49
1271.77 35.15
1271.87 35.82
1271.97 36.49
1272.07 37.15
1272.17 37.89
1272.27 38.63
1272.37 39.51
1272.47 40.41
1272.57 41.31
1272.67 42.21
1272.77 43.1
1272.87 44
1272.97 44.9
1273.07 45.82
1273.17 46.82
1273.27 47.88
1273.37 49.14
1273.47 50.39
1273.57 51.66
1273.67 52.91
1273.77 54.17
1273.87 55.43
1273.97 56.69
1274.07 58.02
1274.17 59.44
1274.27 61.05
1274.37 62.9
1274.47 64.75
1274.57 66.59
1274.67 68.45
1274.77 70.3
1274.87 72.15
1274.97 73.99
1275.07 76.02
1275.17 78.11
1275.27 80.77
1275.37 83.67
1275.47 86.57
1275.57 89.49
1275.67 92.39
1275.77 95.28
1275.87 98.19
1275.97 101.08
1276.07 104.37
1276.17 107.66
1276.27 111.62
1276.37 115.78
1276.47 120.15
1276.57 124.71
1276.67 129.51
1276.77 134.56
1276.87 139.88
1276.97 145.67
1277.07 152.25
1277.17 159.23
1277.27 166.59
1277.37 174.4
1277.47 182.71
1277.57 191.57
1277.67 201.03
1277.77 211.19
1277.87 222.11
1277.97 234.49
1278.07 248.47
1278.17 263.57
1278.27 279.93
1278.37 297.75
1278.47 317.23
1278.57 338.65
1278.67 362.3
1278.77 388.55
1278.87 417.87
1278.97 451.57
1279.07 490.05
1279.17 533.94
1279.27 584.33
1279.37 642.6
1279.47 710.44
1279.57 790.08
1279.67 884.39
1279.77 997.07
1279.87 1133.03
1279.97 1298.81
1280.07 1503.11
1280.17 1757.51
1280.27 2077.43
1280.37 2482.694
1280.47 2996.016
1280.57 3639.532
1280.67 4421.412
1280.77 5307.57
1280.87 6180.32
1280.97 6822.504
1281.07 6969.468
1281.17 5939.07
1281.27 4195.362
1281.37 2677.22
1281.47 1694.994
1281.57 1153.62
1281.67 885.31
1281.77 769.478
1281.87 737.737
1281.97 754.927
1282.07 804.119
1282.17 878.002
1282.27 974.601
1282.37 1095.13
1282.47 1243.281
1282.57 1425.084
1282.67 1649.133
1282.77 1927.332
1282.87 2276.169
1282.97 2716.802
1283.07 3276.865
1283.17 3989.71
1283.27 4889.385
1283.37 5994.621
1283.47 7271.829
1283.57 8575.165
1283.67 9606.249
1283.77 9995.141
1283.87 8809.055
1283.97 6249.937
1284.07 3806.754
1284.17 2131.528
1284.27 1156.252
1284.37 628.038
1284.47 347.823
1284.57 198.1
1284.67 116.383
1284.77 70.625
1284.87 44.166
1284.97 28.394
1285.07 18.725
1285.17 12.64
1285.27 8.718
1285.37 6.132
1285.47 4.388
1285.57 3.195
1285.67 2.36
1285.77 1.768
1285.87 1.34
1285.97 1.029
1286.07 0.8
1286.17 0.626
1286.27 0.496
1286.37 0.396
1286.47 0.318
1286.57 0.258
1286.67 0.21
1286.77 0.173
1286.87 0.142
1286.97 0.119
1287.07 0.099
1287.17 0.084
1287.27 0.071
1287.37 0.06
1287.47 0.051
1287.57 0.043
1287.67 0.037
1287.77 0.032
1287.87 0.028
1287.97 0.024
1288.07 0.021
1288.17 0.019
1288.27 0.017
1288.37 0.015
1288.47 0.013
1288.57 0.012
1288.67 0.01
1288.77 0.009
1288.87 0.008
1288.97 0.008
1289.07 0.007
1289.17 0.006
1289.27 0.006
1289.37 0.005
1289.47 0.004
1289.57 0.004
1289.67 0.003
1289.77 0.003
1289.87 0.003
1289.97 0.003