File: data/XPS/tesSESSAPipe/experiment/Nb3d.dat
BE (eV)	0 min	1 min	8 min	14 min	17 min	24 min
217	722.963	705.744	797.749	1091.63	1224.87	822.113
216.8	771.521	765.004	755.233	1088.43	1209.72	891.715
216.6	753.244	772.697	797.072	1069.52	1196.38	934.393
216.4	683.811	756.305	812.856	1034.01	1178.09	873.081
216.2	697.456	734.015	777.393	1130.84	1134.04	929.465
216	697.812	753.411	798.704	1097.79	1205.89	830.405
215.8	718.981	739.671	785.027	1118.58	1109.59	856.377
215.6	708.792	748.969	768.355	1053.3	1157.33	883.837
215.4	691.048	764.635	785.109	1031.39	1158.79	879.157
215.2	730.392	718.697	775.021	1070.58	1149.44	805.504
215	790.099	710.492	746.404	1025.06	1113.77	847.329
214.8	726.743	781.019	757.436	1049.38	1119.24	846.743
214.6	729.224	746.491	716.324	1045.69	1173.46	906.959
214.4	703.432	765.167	745.107	948.688	1108	776.985
214.2	639.809	729.544	700.285	1015.35	1048.02	781.368
214	748.189	697.076	746.636	984.564	1109.92	870.132
213.8	682.964	728.909	738.392	976.505	1076.91	884.532
213.6	741.757	757.708	807.704	998.557	1081.78	908.424
213.4	810.629	761.032	772.744	986.753	1071.87	776.191
213.2	697.599	753.208	777.293	941.483	1069.56	780.888
213	743.064	748.247	756.725	965.992	1115.53	804.855
212.8	798.712	702.136	774.357	1004.92	1130.5	832.312
212.6	746.361	739.891	725.72	980.329	1117.02	804.652
212.4	674.776	783.572	743.945	977.099	1034.09	843.744
212.2	724.381	744.139	772.037	962.995	1110.22	743.649
212	755.203	730.632	779.131	947.923	1100.6	806.685
211.8	741.103	758.311	750.297	960.095	1093.14	809.577
211.6	706.797	761.487	760.024	892.204	1055.66	849.208
211.4	702.856	697.621	754.679	875.976	1050.24	817.963
211.2	741.14	712.325	734.607	917.917	1106.27	791.216
211	713.829	754.785	720.643	941.145	1086.5	854.204
210.8	826.031	758.965	743.968	910.464	1087.38	833.203
210.6	750.071	752.139	804.648	931.073	1116.34	762.927
210.4	687.036	737.279	718.077	931.92	1161.5	806.653
210.2	779.919	739.796	720.355	898.531	1158.71	800.121
210	719.568	722.229	767.243	877.161	1135.35	843.517
209.8	718.303	736.332	687.459	894.877	1110.73	816.469
209.6	755.315	766.661	708.125	855.26	1191.03	856.107
209.4	710.424	735.583	746.455	931.396	1194.76	847.784
209.2	748.087	737.095	796.292	1025.9	1198.42	828.049
209	726.599	745.688	736.919	948.528	1249.6	860.743
208.8	750.607	749.837	767.18	1000.07	1204.91	884.129
208.6	725.617	794.077	718.433	963.661	1213.67	969.635
208.4	766.589	760.869	700.129	960.568	1261.97	913.083
208.2	725.117	747.121	740.152	989.123	1346.39	946.915
208	763.407	782.707	757.441	988.841	1460.81	915.663
207.8	792.955	789.028	699.731	1060.16	1349.45	1019.63
207.6	747.679	793.947	764.125	1032.67	1409.29	1073.36
207.4	755.869	794.711	788.191	1124.74	1600.17	1165.39
207.2	788.855	780.652	826.188	1242.13	1847.68	1229.67
207	732.856	750.753	796.263	1354.6	1973.65	1493.49
206.8	788.113	726.388	779.923	1463.53	2353.09	1602.97
206.6	780.464	725.135	919.5	1817.52	2966.33	2131.97
206.4	727.021	752.635	888.924	2407.03	3881.07	2817.03
206.2	787.733	777.315	1039.15	2986.56	4993.72	3395.56
206	794.549	769.221	1138.65	3246.24	5301.37	3626.73
205.8	771.981	784.648	1027.14	3175.29	4629.25	3283.03
205.6	751.915	761.788	897.455	2200.79	3232.69	2365.24
205.4	784.153	817.161	847.059	1616.55	2170.21	1614.73
205.2	733.055	743.652	782.771	1277.72	1706.59	1232.2
205	745.432	731.449	759.297	1181.4	1482.08	1142.96
204.8	754.335	725.612	756.396	1124.63	1508.72	1092.04
204.6	759.769	838.121	786.063	1119.69	1655.15	1146.54
204.4	782.688	767.081	812.108	1157.33	1790.07	1222.95
204.2	780.977	747.015	823.067	1323.39	2035.83	1434.64
204	757.263	749.879	857.42	1654.79	2572	1926.91
203.8	774.667	814.409	902.171	2189.97	3721.75	2563.37
203.6	759.135	829.117	996.508	3063.17	5770.08	3821.64
203.4	748.504	845.203	1240.54	4421.92	7781.77	5310.85
203.2	817.969	869.267	1184.11	4845.76	8265.25	5554.93
203	807.455	817.595	1165.74	3915.85	6020.55	4203.96
202.8	776.244	807.829	945.123	2226.91	3010.75	2409.53
202.6	746.168	784.549	847.779	1265.8	1465.93	1179.82
202.4	724.185	710.297	763.515	822.188	1028.95	782.737
202.2	766.099	797.491	752.383	782.407	800.401	665.008
202	770.724	781.581	774.811	706.964	756.144	634.273
201.8	746.544	766.749	765.897	647.675	717.456	561.108
201.6	808.648	734.901	686.315	672.809	643.032	551.707
201.4	751.583	772.951	756.955	703.279	645.037	558.735
201.2	755.121	787.383	761.541	685.617	704.965	475.184
201	725.396	709.012	754.019	657.892	657.32	531.345
200.8	737.419	754.288	747.063	638.733	662.773	495.355
200.6	719.485	734.216	708.416	622.731	646.861	537.881
200.4	754.992	792.216	735.581	636.144	569.799	524.972
200.2	718.648	750.868	741.773	630.012	587.311	522.681
200	799.896	792.269	776.737	670.6	588.267	480.829
199.8	768.06	809.085	806.143	648.256	638.621	513.747
199.6	738.257	792.936	755.749	691.536	608.123	533.233
199.4	752.632	770.549	723.023	671.419	655.067	532.293
199.2	747.668	812.629	778.981	667.828	610.009	474.593
199	769.315	782.324	746.629	631.055	649.409	563.377
198.8	699.691	764.915	678.596	641.717	631.233	538.021
198.6	759.855	829.103	737.581	683.763	647.864	525.276
198.4	680.564	749.411	738.067	670.099	615.021	536.08
198.2	755.712	794.14	710.913	611.377	600.024	574.44
198	758.761	749.216	751.783	627.676	612.816	568.451
197.8	789.351	742.123	761.419	663.869	624.307	521.091
197.6	780.441	724.059	755.731	657.384	610.819	501.515
197.4	802.532	738.237	773.729	600.443	633.875	560.195
197.2	772.379	736.661	765.237	613.521	640.881	549.419
197	782.409	810.269	712.564	618.171	606.072	526.576