File: data/XPS/casaXPSspectra_Nb=13A/ref_Si2p_Si2O3.dat
1376.6	0
1376.7	0
1376.8	0
1376.9	0
1377	0
1377.1	0
1377.2	0
1377.3	0
1377.4	0
1377.5	0
1377.6	0
1377.7	0
1377.8	0
1377.9	0
1378	0
1378.1	0
1378.2	0
1378.3	0
1378.4	0
1378.5	0
1378.6	0
1378.7	0
1378.8	0
1378.9	0
1379	0
1379.1	0
1379.2	0
1379.3	0
1379.4	0
1379.5	0
1379.6	0
1379.7	0
1379.8	0
1379.9	0.001
1380	0.001
1380.1	0.002
1380.2	0.003
1380.3	0.004
1380.4	0.007
1380.5	0.011
1380.6	0.018
1380.7	0.028
1380.8	0.045
1380.9	0.069
1381	0.105
1381.1	0.159
1381.2	0.238
1381.3	0.355
1381.4	0.522
1381.5	0.76
1381.6	1.096
1381.7	1.563
1381.8	2.206
1381.9	3.083
1382	4.266
1382.1	5.853
1382.2	7.949
1382.3	10.685
1382.4	14.211
1382.5	18.705
1382.6	24.358
1382.7	31.384
1382.8	40.002
1382.9	50.43
1383	62.91
1383.1	77.591
1383.2	94.565
1383.3	113.849
1383.4	135.35
1383.5	158.83
1383.6	183.889
1383.7	209.949
1383.8	236.252
1383.9	261.859
1384	285.707
1384.1	306.72
1384.2	323.851
1384.3	336.183
1384.4	343.026
1384.5	343.979
1384.6	338.983
1384.7	328.328
1384.8	312.559
1384.9	292.574
1385	269.451
1385.1	244.274
1385.2	218.097
1385.3	191.879
1385.4	166.432
1385.5	142.394
1385.6	120.225
1385.7	100.24
1385.8	82.584
1385.9	67.235
1386	54.11
1386.1	43.057
1386.2	33.8829
1386.3	26.3731
1386.4	20.3067
1386.5	15.468
1386.6	11.6657
1386.7	8.7165
1386.8	6.4463
1386.9	4.7188
1387	3.419
1387.1	2.4519
1387.2	1.7403
1387.3	1.2225
1387.4	0.8498
1387.5	0.5852
1387.6	0.3997
1387.7	0.2703
1387.8	0.1809
1387.9	0.1198
1388	0.0786
1388.1	0.051
1388.2	0.0327
1388.3	0.0208
1388.4	0.013
1388.5	0.0082
1388.6	0.0051
1388.7	0.003
1388.8	0.0018
1388.9	0.0011
1389	0.0006
1389.1	0.0004
1389.2	0.0002
1389.3	0.0001
1389.4	0.0001
1389.5	0
1389.6	0
1389.7	0
1389.8	0
1389.9	0
1390	0
1390.1	0
1390.2	0
1390.3	0
1390.4	0
1390.5	0
1390.6	0
1390.7	0
1390.8	0
1390.9	0
1391	0
1391.1	0
1391.2	0
1391.3	0
1391.4	0
1391.5	0
1391.6	0
1391.7	0
1391.8	0
1391.9	0
1392	0
1392.1	0
1392.2	0
1392.3	0
1392.4	0
1392.5	0
1392.6	0