File: data/XPS/casaXPSspectra_Nb=13A/ref_Si2p_Si-Nb.dat
1376.97	0.185
1377.07	0.188
1377.17	0.193
1377.27	0.196
1377.37	0.201
1377.47	0.204
1377.57	0.209
1377.67	0.213
1377.77	0.218
1377.87	0.222
1377.97	0.227
1378.07	0.233
1378.17	0.238
1378.27	0.243
1378.37	0.248
1378.47	0.254
1378.57	0.26
1378.67	0.266
1378.77	0.272
1378.87	0.279
1378.97	0.286
1379.07	0.293
1379.17	0.3
1379.27	0.308
1379.37	0.316
1379.47	0.324
1379.57	0.332
1379.67	0.341
1379.77	0.35
1379.87	0.36
1379.97	0.37
1380.07	0.38
1380.17	0.391
1380.27	0.403
1380.37	0.414
1380.47	0.427
1380.57	0.44
1380.67	0.453
1380.77	0.467
1380.87	0.482
1380.97	0.498
1381.07	0.515
1381.17	0.532
1381.27	0.551
1381.37	0.569
1381.47	0.589
1381.57	0.61
1381.67	0.633
1381.77	0.656
1381.87	0.681
1381.97	0.708
1382.07	0.734
1382.17	0.766
1382.27	0.796
1382.37	0.831
1382.47	0.866
1382.57	0.903
1382.67	0.945
1382.77	0.989
1382.87	1.036
1382.97	1.085
1383.07	1.139
1383.17	1.197
1383.27	1.26
1383.37	1.328
1383.47	1.401
1383.57	1.482
1383.67	1.57
1383.77	1.664
1383.87	1.769
1383.97	1.881
1384.07	2.013
1384.17	2.147
1384.27	2.309
1384.37	2.469
1384.47	2.682
1384.57	2.893
1384.67	3.15
1384.77	3.413
1384.87	3.72
1384.97	4.064
1385.07	4.518
1385.17	5.049
1385.27	5.646
1385.37	6.332
1385.47	7.189
1385.57	8.308
1385.67	9.753
1385.77	11.668
1385.87	14.269
1385.97	17.868
1386.07	22.86
1386.17	29.707
1386.27	38.797
1386.37	50.315
1386.47	64.043
1386.57	79.312
1386.67	95.114
1386.77	110.461
1386.87	124.667
1386.97	137.577
1387.07	149.182
1387.17	159.162
1387.27	166.339
1387.37	168.801
1387.47	164.55
1387.57	152.636
1387.67	133.728
1387.77	110.229
1387.87	85.39
1387.97	62.314
1388.07	43.07
1388.17	28.478
1388.27	18.254
1388.37	11.554
1388.47	7.37
1388.57	4.828
1388.67	3.291
1388.77	2.346
1388.87	1.742
1388.97	1.343
1389.07	1.07
1389.17	0.869
1389.27	0.716
1389.37	0.595
1389.47	0.505
1389.57	0.433
1389.67	0.383
1389.77	0.338
1389.87	0.296
1389.97	0.255
1390.07	0.224
1390.17	0.203
1390.27	0.181
1390.37	0.161
1390.47	0.144
1390.57	0.132
1390.67	0.12
1390.77	0.108
1390.87	0.099
1390.97	0.091
1391.07	0.083
1391.17	0.077
1391.27	0.07
1391.37	0.066
1391.47	0.06
1391.57	0.057
1391.67	0.052
1391.77	0.049
1391.87	0.045
1391.97	0.043
1392.07	0.04
1392.17	0.037
1392.27	0.035
1392.37	0.033
1392.47	0.031
1392.57	0.03
1392.67	0.027
1392.77	0.026
1392.87	0.024
1392.97	0.023