File: data/XPS/casaXPSspectra_Nb=13A/ref_Si2p_Si-Si.dat
1376.6	2.761
1376.7	2.818
1376.8	2.875
1376.9	2.934
1377	2.994
1377.1	3.058
1377.2	3.123
1377.3	3.188
1377.4	3.258
1377.5	3.331
1377.6	3.404
1377.7	3.479
1377.8	3.558
1377.9	3.642
1378	3.724
1378.1	3.812
1378.2	3.904
1378.3	3.998
1378.4	4.092
1378.5	4.194
1378.6	4.3
1378.7	4.408
1378.8	4.519
1378.9	4.637
1379	4.761
1379.1	4.886
1379.2	5.016
1379.3	5.155
1379.4	5.3
1379.5	5.445
1379.6	5.601
1379.7	5.766
1379.8	5.937
1379.9	6.107
1380	6.294
1380.1	6.494
1380.2	6.694
1380.3	6.901
1380.4	7.127
1380.5	7.367
1380.6	7.606
1380.7	7.861
1380.8	8.14
1380.9	8.428
1381	8.716
1381.1	9.037
1381.2	9.383
1381.3	9.737
1381.4	10.099
1381.5	10.499
1381.6	10.938
1381.7	11.376
1381.8	11.842
1381.9	12.361
1382	12.914
1382.1	13.468
1382.2	14.083
1382.3	14.771
1382.4	15.482
1382.5	16.205
1382.6	17.03
1382.7	17.966
1382.8	18.907
1382.9	19.908
1383	21.054
1383.1	22.337
1383.2	23.622
1383.3	25.059
1383.4	26.738
1383.5	28.556
1383.6	30.376
1383.7	32.539
1383.8	35.156
1383.9	37.867
1384	40.717
1384.1	44.142
1384.2	48.485
1384.3	52.826
1384.4	57.723
1384.5	63.503
1384.6	70.332
1384.7	78.002
1384.8	88.458
1384.9	100.812
1385	115.269
1385.1	132.958
1385.2	157.532
1385.3	190.822
1385.4	237.446
1385.5	304.43
1385.6	401.433
1385.7	539.497
1385.8	727.442
1385.9	966.231
1386	1243.757
1386.1	1534.829
1386.2	1809.92
1386.3	2050
1386.4	2257.29
1386.5	2450.734
1386.6	2644.88
1386.7	2824.649
1386.8	2938.54
1386.9	2919.463
1387	2722.84
1387.1	2356.82
1387.2	1883.14
1387.3	1388.8
1387.4	950.087
1387.5	609.5196
1387.6	372.98
1387.7	222.9604
1387.8	134.0011
1387.9	83.2696
1388	54.4901
1388.1	37.715
1388.2	27.5065
1388.3	20.9648
1388.4	16.432
1388.5	13.119
1388.6	10.7046
1388.7	8.9036
1388.8	7.4762
1388.9	6.5503
1389	5.6988
1389.1	4.8581
1389.2	4.1252
1389.3	3.677
1389.4	3.2622
1389.5	2.8474
1389.6	2.5256
1389.7	2.2835
1389.8	2.0534
1389.9	1.8231
1390	1.6608
1390.1	1.5189
1390.2	1.3801
1390.3	1.2477
1390.4	1.1516
1390.5	1.0627
1390.6	0.9739
1390.7	0.8957
1390.8	0.8328
1390.9	0.7732
1391	0.7136
1391.1	0.6648
1391.2	0.622
1391.3	0.5804
1391.4	0.539
1391.5	0.507
1391.6	0.4768
1391.7	0.4469
1391.8	0.419
1391.9	0.3956
1392	0.3736
1392.1	0.3515
1392.2	0.332
1392.3	0.3149
1392.4	0.2982
1392.5	0.2815
1392.6	0.2675